*Cross Sections / Halogen oxides / Br oxides / BrO / Fleischmann(2004)_223K_300-385nm
*
*DATAFILE:	BrO_Fleischmann(2004)_223K_300-385nm.txt
*NAME:	bromine monoxide
*FORMULA:	BrO
*AUTHOR(YEAR):	Fleischmann(2004)
*T:	223K
*l:	300-385nm
*BIBLIOGRAPHY:	O.C. Fleischmann, J.P. Burrows, and J. Orphal, "Time-windowing Fourier transform absorption spectroscopy for flash photolysis investigations," J. Photochem. Photobiol. A.: Chem. 157, 127-136 (2003)
*O.C. Fleischmann, M. Hartmann, J.P. Burrows, and J. Orphal, "New ultraviolet absorption cross-sections of BrO at atmospheric temperatures measured by a time-windowing Fourier transform spectroscopy," J. Photochem. Photobiol. A.: Chem. 168, 117-132 (2004)
*COMMENTS:	Absorption measurements using a Fourier transform spectrometer* spectral resolution 4 cm-1 (vacuum wavelengths)
*Data from
*http://www.iup.physik.uni-bremen.de/gruppen/molspec/index.html
************************************************************************************************************************************************************
* Columns description :
* Column 1 : Wavelength in Vacuum [nm]
* Column 2 : BrO absorption cross-section @ 243 K [cm^^2 molec ^^-1]
************************************************************************************************************************************************************
300.75774     1.10700e-18
300.77086     3.13400e-18
300.78393     1.84900e-18
300.79700    -2.97600e-18
300.81012    -4.03100e-18
300.82320     7.92000e-19
300.83628     6.81600e-18
300.84935     7.32200e-18
300.86248     1.22400e-18
300.87556     3.66200e-20
300.88864     7.15200e-19
300.90173     2.58600e-18
300.91485     2.71500e-18
300.92794     3.49100e-18
300.94102     5.27000e-18
300.95412     4.01300e-18
300.96725     4.64300e-19
300.98034    -1.40900e-18
300.99343    -7.38700e-19
301.00656     1.48900e-18
301.01966     1.04200e-18
301.03275     2.98200e-19
301.04585     2.06800e-18
301.05899     5.58700e-18
301.07208     3.28300e-18
301.08519    -1.95800e-18
301.09829    -2.63400e-18
301.11143    -4.73600e-19
301.12453     1.28700e-18
301.13764     2.33900e-18
301.15075     3.26200e-18
301.16389     5.18300e-18
301.17701     3.24300e-18
301.19011     3.39300e-18
301.20326     4.85000e-18
301.21637     7.07900e-18
301.22949     7.01200e-18
301.24260     2.90800e-18
301.25575     3.28000e-18
301.26888     3.29100e-18
301.28199     6.46600e-19
301.29511    -2.44500e-19
301.30826     9.51300e-19
301.32139     1.11800e-18
301.33451    -1.59800e-19
301.34763    -8.77000e-19
301.36080     1.43800e-18
301.37392     4.16600e-18
301.38705     3.28900e-18
301.40021     2.22600e-18
301.41335     3.08300e-18
301.42648     2.54500e-18
301.43961    -2.51000e-19
301.45278    -1.00500e-18
301.46591     1.55100e-18
301.47905     2.09300e-18
301.49219    -3.73000e-19
301.50536    -9.75600e-19
301.51850     2.38400e-18
301.53164     4.64700e-18
301.54478     3.63600e-18
301.55796     3.12900e-18
301.57110     3.65900e-18
301.58425     3.53800e-18
301.59743     2.03700e-18
301.61058     6.27300e-19
301.62372     5.81900e-19
301.63688     3.95300e-19
301.65006     1.86200e-18
301.66321     3.15700e-18
301.67637     6.35400e-18
301.68952     9.87200e-18
301.70271     6.65500e-18
301.71586     3.57500e-18
301.72903     3.71500e-18
301.74218     2.31200e-18
301.75538     1.13900e-18
301.76854     2.63000e-18
301.78170     4.48000e-18
301.79490     5.79100e-18
301.80806     5.10000e-18
301.82123     7.16200e-18
301.83440     7.60200e-18
301.84760     5.95400e-18
301.86078     5.04300e-18
301.87394     7.17800e-18
301.88711     7.11700e-18
301.90032     5.04700e-18
301.91350     3.39300e-18
301.92667     5.60200e-18
301.93984     8.83900e-18
301.95306     7.29300e-18
301.96624     3.36000e-18
301.97941     2.91200e-18
301.99263     3.15700e-18
302.00582     1.92700e-18
302.01900     2.57800e-19
302.03218     1.69100e-18
302.04541     4.18300e-18
302.05859     4.08200e-18
302.07177     3.92900e-18
302.08496     2.77400e-18
302.09819     5.27400e-18
302.11138     5.92700e-18
302.12457     4.98900e-18
302.13777     5.69600e-18
302.15100     5.40400e-18
302.16419     3.65600e-18
302.17738     7.68500e-19
302.19059     1.51100e-18
302.20382     2.44100e-18
302.21702     8.07900e-19
302.23023     1.48400e-19
302.24346     2.03300e-18
302.25666     4.98300e-18
302.26987     4.85800e-18
302.28308     3.25800e-18
302.29632     3.90900e-18
302.30952     4.69100e-18
302.32274     5.26100e-18
302.33595     4.61100e-18
302.34919     3.23700e-18
302.36240     2.95700e-18
302.37562     2.19800e-18
302.38884     8.18200e-19
302.40209     9.58700e-19
302.41531     1.13500e-18
302.42853     9.85100e-19
302.44178     8.99800e-19
302.45500     2.34900e-18
302.46823     3.39400e-18
302.48145     2.84100e-18
302.49470     2.02800e-18
302.50794     1.30600e-18
302.52116     1.45100e-18
302.53438     2.19000e-18
302.54765     1.87800e-18
302.56088     2.63200e-18
302.57411     9.37700e-19
302.58734     1.78800e-19
302.60062     3.91700e-19
302.61385     1.18400e-18
302.62708     2.05500e-18
302.64036     3.51800e-18
302.65360     3.67700e-18
302.66684     2.40600e-18
302.68007     1.25300e-18
302.69336     1.64300e-18
302.70660     2.90800e-18
302.71984     3.40300e-18
302.73309     2.06600e-18
302.74637     1.22200e-18
302.75962     1.74000e-18
302.77286     2.89100e-18
302.78612     3.99700e-18
302.79940     3.92200e-18
302.81265     2.19000e-18
302.82591     6.04300e-19
302.83920     9.94900e-19
302.85246     2.37600e-18
302.86571     3.76000e-18
302.87897     1.26100e-18
302.89227    -1.14600e-18
302.90552    -1.88300e-18
302.91879    -1.44400e-18
302.93205    -3.94700e-19
302.94535    -7.29300e-19
302.95861     3.19900e-19
302.97188     4.62700e-20
302.98515    -1.45200e-18
302.99845    -1.00500e-18
303.01173     7.60400e-19
303.02500     2.94900e-18
303.03830     2.22400e-18
303.05157     1.42300e-21
303.06485    -5.86800e-19
303.07813    -1.16200e-18
303.09144    -2.15700e-18
303.10472    -1.86700e-18
303.11800    -8.83400e-20
303.13127     1.55900e-18
303.14459     7.99100e-19
303.15788     7.93500e-19
303.17116     7.71500e-19
303.18444     5.88000e-19
303.19777     1.70900e-19
303.21105    -9.64100e-19
303.22434     2.94800e-19
303.23766     2.64800e-18
303.25096     2.90300e-18
303.26425     2.28000e-18
303.27754     7.27100e-19
303.29088     1.10400e-19
303.30417    -2.75900e-19
303.31746    -6.75300e-19
303.33077    -2.55800e-19
303.34410    -4.89300e-19
303.35740     7.22300e-22
303.37069     1.08800e-18
303.38400     2.72300e-18
303.39734     2.43200e-18
303.41064     6.17600e-19
303.42395     3.06600e-19
303.43730     1.28800e-18
303.45060     2.71300e-18
303.46391     2.56300e-18
303.47722     1.59700e-18
303.49057     8.73000e-19
303.50388     1.77100e-18
303.51720     2.95800e-18
303.53051     2.78400e-18
303.54386     2.37100e-18
303.55718     2.22100e-18
303.57050     2.56600e-18
303.58382     1.44700e-18
303.59717    -7.59700e-19
303.61049    -9.42700e-19
303.62382     1.19300e-18
303.63718     3.41500e-18
303.65050     3.26600e-18
303.66384     1.33000e-18
303.67716     4.54100e-19
303.69053     9.90200e-19
303.70386     3.43000e-20
303.71719     2.68600e-19
303.73052    -3.23300e-19
303.74389    -7.89600e-19
303.75723     5.94500e-19
303.77056     2.24300e-18
303.78390     3.63600e-18
303.79727     9.33800e-19
303.81062    -1.19100e-18
303.82396    -3.90900e-19
303.83733     3.17300e-18
303.85068     3.13100e-18
303.86402    -2.27700e-19
303.87737    -1.33900e-18
303.89076     1.66600e-18
303.90410     3.68900e-18
303.91745     1.83400e-18
303.93079     2.82600e-19
303.94419     1.42200e-18
303.95754     4.35800e-18
303.97089     3.33800e-18
303.98425     6.97600e-19
303.99764     4.87700e-19
304.01100     2.64200e-18
304.02435     4.55300e-18
304.03776     4.23600e-18
304.05111     2.19900e-18
304.06447     7.17700e-19
304.07784     1.84000e-18
304.09124     2.58800e-18
304.10460     1.47300e-18
304.11797     1.30000e-19
304.13134     1.33800e-18
304.14474     4.93800e-18
304.15811     5.55400e-18
304.17149     3.33600e-18
304.18486     1.52800e-18
304.19827     1.70700e-18
304.21164     2.76700e-18
304.22502     3.01500e-18
304.23840     3.08900e-18
304.25181     5.69700e-18
304.26520     7.76700e-18
304.27857     6.81500e-18
304.29199     4.47100e-18
304.30537     5.02500e-18
304.31876     7.71200e-18
304.33214     7.38800e-18
304.34556     5.39600e-18
304.35896     4.98200e-18
304.37235     6.17800e-18
304.38573     7.38100e-18
304.39916     6.90100e-18
304.41256     6.76300e-18
304.42595     6.57900e-18
304.43934     6.43300e-18
304.45278     6.44700e-18
304.46617     6.00300e-18
304.47957     4.30800e-18
304.49300     4.77400e-18
304.50641     6.76300e-18
304.51981     6.80300e-18
304.53321     5.03600e-18
304.54666     4.20600e-18
304.56006     6.53000e-18
304.57347     8.00300e-18
304.58688     7.48800e-18
304.60032     6.50400e-18
304.61373     7.38000e-18
304.62714     8.43100e-18
304.64056     5.74100e-18
304.65401     2.83900e-18
304.66742     3.79600e-18
304.68084     6.95200e-18
304.69429     7.79900e-18
304.70771     3.96400e-18
304.72113     2.02500e-18
304.73455     3.43800e-18
304.74801     5.34500e-18
304.76143     5.01200e-18
304.77486     5.79000e-18
304.78828     6.87100e-18
304.80175     6.84100e-18
304.81517     5.66200e-18
304.82861     5.71400e-18
304.84203     6.78700e-18
304.85550     6.13700e-18
304.86894     4.57400e-18
304.88237     4.38800e-18
304.89584     6.39200e-18
304.90927     6.53000e-18
304.92272     3.13400e-18
304.93615     6.39300e-19
304.94963     2.26400e-18
304.96308     6.35200e-18
304.97652     7.92300e-18
304.98996     4.99300e-18
305.00343     1.68800e-18
305.01689     5.39700e-19
305.03033     1.68100e-18
305.04378     3.87200e-18
305.05727     4.87400e-18
305.07072     3.31700e-18
305.08417     2.65300e-18
305.09765     2.78100e-18
305.11111     1.77900e-18
305.12457     1.22900e-18
305.13802     1.11400e-18
305.15152     2.40400e-18
305.16498     3.94000e-18
305.17845     4.18700e-18
305.19193     4.16000e-18
305.20540     4.47700e-18
305.21888     3.68500e-18
305.23234     2.26700e-18
305.24583     1.97000e-18
305.25930     1.82700e-18
305.27278     1.49300e-18
305.28627     8.03500e-19
305.29974     8.73600e-19
305.31323     2.39400e-18
305.32670     4.41000e-18
305.34020     3.06400e-18
305.35367     6.33100e-19
305.36717    -1.94500e-20
305.38064     1.22100e-18
305.39415     2.55900e-18
305.40762     2.53100e-18
305.42112     2.40200e-18
305.43461     2.45700e-18
305.44811     2.02800e-18
305.46159     1.59900e-18
305.47509     1.29800e-18
305.48861     9.51800e-19
305.50209     3.05400e-19
305.51560    -6.19700e-19
305.52910     5.03200e-20
305.54260     9.19000e-19
305.55609     1.66700e-18
305.56960     1.57900e-18
305.58311     1.84900e-18
305.59662     2.47300e-18
305.61012     1.93900e-18
305.62364     6.30600e-19
305.63714     4.28100e-19
305.65066     1.42300e-18
305.66416     1.89100e-18
305.67768     1.76900e-18
305.69119     1.26400e-18
305.70471     7.31500e-19
305.71824     2.70700e-19
305.73175     5.07500e-19
305.74527     9.38400e-19
305.75878     1.59900e-18
305.77232     2.05100e-18
305.78583     2.05600e-18
305.79936     2.26700e-18
305.81289     2.26200e-18
305.82642     2.93900e-18
305.83993     2.92200e-18
305.85347     3.02700e-18
305.86700     2.13600e-18
305.88053     2.04900e-18
305.89406     2.66400e-18
305.90761     2.26000e-18
305.92115     2.77800e-19
305.93467    -1.74000e-18
305.94821    -1.08600e-18
305.96175     2.13100e-18
305.97530     4.21900e-18
305.98883     3.11500e-18
306.00238     2.81800e-18
306.01591     3.99800e-18
306.02947     4.79200e-18
306.04301     2.79300e-18
306.05656     8.00700e-19
306.07010     1.67900e-19
306.08365     2.05800e-19
306.09720     5.72300e-19
306.11076     1.46100e-18
306.12432     2.78600e-18
306.13787     2.35700e-18
306.15143     2.85000e-19
306.16498    -4.48900e-19
306.17854     1.45400e-18
306.19210     2.66200e-18
306.20567     9.37800e-19
306.21921    -1.01300e-18
306.23279    -4.17900e-19
306.24634     1.02600e-18
306.25992     1.11700e-18
306.27347    -5.33000e-19
306.28705    -4.14900e-19
306.30061     1.24100e-18
306.31419     1.37300e-18
306.32777    -4.97700e-19
306.34133    -5.93900e-19
306.35491     1.67200e-18
306.36848     4.25800e-18
306.38207     4.53000e-18
306.39563     2.38900e-18
306.40922     1.13000e-18
306.42279     1.20700e-18
306.43638     1.26200e-18
306.44995     8.37500e-19
306.46354     7.49200e-19
306.47712     1.44500e-18
306.49071     2.63100e-18
306.50429     3.29900e-18
306.51789     3.07600e-18
306.53147     2.83800e-18
306.54507     2.59400e-18
306.55866     2.16100e-18
306.57225     2.16300e-18
306.58585     1.71400e-18
306.59944     1.29000e-18
306.61305     1.40100e-18
306.62663     2.22000e-18
306.64024     1.59100e-18
306.65383    -7.37600e-20
306.66744    -1.07700e-18
306.68103     4.02200e-19
306.69464     3.09500e-18
306.70825     3.10100e-18
306.72186     7.71600e-19
306.73545     4.01400e-19
306.74907     2.09700e-18
306.76269     2.23800e-18
306.77629    -3.05000e-19
306.78991    -1.29900e-18
306.80352     1.16600e-18
306.81714     4.38800e-18
306.83075     3.50500e-18
306.84437     1.52200e-18
306.85798     1.31800e-18
306.87161     2.83700e-18
306.88522     3.14600e-18
306.89886     2.08500e-18
306.91247     2.19800e-18
306.92610     2.89200e-18
306.93971     3.40000e-18
306.95335     3.54300e-18
306.96699     3.67200e-18
306.98060     4.72100e-18
306.99425     4.80800e-18
307.00787     3.59400e-18
307.02151     2.54100e-18
307.03514     3.19600e-18
307.04878     4.27800e-18
307.06240     5.03200e-18
307.07605     4.92900e-18
307.08968     5.15500e-18
307.10333     6.20600e-18
307.11696     6.49800e-18
307.13061     6.10800e-18
307.14425     5.25200e-18
307.15790     5.55900e-18
307.17155     7.05000e-18
307.18520     7.99800e-18
307.19885     6.81600e-18
307.21249     5.42100e-18
307.22616     6.12500e-18
307.23980     7.83300e-18
307.25346     8.20500e-18
307.26710     7.26500e-18
307.28077     6.73600e-18
307.29441     6.97400e-18
307.30808     7.02800e-18
307.32173     6.73600e-18
307.33540     6.95000e-18
307.34905     8.35000e-18
307.36272     8.91600e-18
307.37640     7.48900e-18
307.39005     6.78600e-18
307.40373     6.70900e-18
307.41739     7.48200e-18
307.43107     8.49400e-18
307.44472     9.51200e-18
307.45840     1.08800e-17
307.47207     1.06000e-17
307.48575     8.56100e-18
307.49942     6.69100e-18
307.51311     6.42700e-18
307.52677     6.38200e-18
307.54046     6.25400e-18
307.55413     6.72400e-18
307.56782     8.07500e-18
307.58149     8.57100e-18
307.59518     8.24700e-18
307.60888     7.91900e-18
307.62256     8.28600e-18
307.63625     8.78600e-18
307.64993     7.68300e-18
307.66363     6.41700e-18
307.67731     6.27200e-18
307.69101     7.45500e-18
307.70470     7.31600e-18
307.71840     5.87200e-18
307.73209     5.13800e-18
307.74579     6.29900e-18
307.75948     8.49600e-18
307.77319     7.88700e-18
307.78688     5.41300e-18
307.80060     4.43600e-18
307.81431     5.49000e-18
307.82800     6.19200e-18
307.84171     5.06600e-18
307.85541     4.17100e-18
307.86913     4.74000e-18
307.88283     5.42600e-18
307.89655     6.00300e-18
307.91025     6.75700e-18
307.92397     7.45400e-18
307.93767     7.04600e-18
307.95140     5.73500e-18
307.96511     4.56800e-18
307.97883     4.28900e-18
307.99255     4.44300e-18
308.00628     4.45300e-18
308.02000     4.59200e-18
308.03371     4.52600e-18
308.04745     4.07300e-18
308.06117     3.20600e-18
308.07490     2.93500e-18
308.08862     3.74400e-18
308.10236     3.91500e-18
308.11608     3.52800e-18
308.12981     3.51300e-18
308.14354     3.87400e-18
308.15728     4.38900e-18
308.17101     4.35600e-18
308.18476     4.32900e-18
308.19848     4.31200e-18
308.21223     3.59000e-18
308.22597     2.62700e-18
308.23971     2.56200e-18
308.25346     3.08400e-18
308.26719     3.35800e-18
308.28095     3.13100e-18
308.29469     3.09900e-18
308.30844     2.94500e-18
308.32219     2.37000e-18
308.33594     2.32500e-18
308.34968     3.44800e-18
308.36344     4.66400e-18
308.37719     4.43800e-18
308.39095     3.26700e-18
308.40469     2.52600e-18
308.41847     2.90500e-18
308.43223     3.32400e-18
308.44598     3.00300e-18
308.45975     1.89600e-18
308.47350     6.43300e-19
308.48727    -4.29600e-22
308.50103     8.19800e-19
308.51481     1.96900e-18
308.52856     2.08600e-18
308.54234     1.35800e-18
308.55609     1.25700e-18
308.56988     2.15200e-18
308.58364     3.11000e-18
308.59742     3.23800e-18
308.61119     2.77600e-18
308.62497     2.29100e-18
308.63874     1.19600e-18
308.65252     3.03300e-19
308.66632     9.02200e-19
308.68008     2.62200e-18
308.69387     2.86700e-18
308.70765     1.46400e-18
308.72144     6.07000e-19
308.73522     1.19500e-18
308.74901     1.63700e-18
308.76279     1.12700e-18
308.77659     9.40700e-19
308.79037     2.29400e-18
308.80417     3.64100e-18
308.81795     3.12500e-18
308.83175     2.39600e-18
308.84554     2.40500e-18
308.85935     2.21300e-18
308.87315     1.49900e-18
308.88694     1.48000e-18
308.90076     2.19200e-18
308.91454     2.92600e-18
308.92835     2.61100e-18
308.94215     2.15900e-18
308.95597     2.27900e-18
308.96976     1.90200e-18
308.98357     6.08100e-19
308.99738    -6.32500e-20
309.01120     1.16200e-18
309.02499     3.04600e-18
309.03881     3.01500e-18
309.05262     1.74800e-18
309.06645     9.06200e-19
309.08027     5.86600e-19
309.09408     1.73100e-19
309.10791     2.72800e-19
309.12172     1.85600e-18
309.13554     2.74100e-18
309.14936     1.63500e-18
309.16319     4.06000e-19
309.17700     1.09900e-18
309.19085     2.87300e-18
309.20466     2.84500e-18
309.21850     1.58500e-18
309.23232     9.25800e-19
309.24616     9.35800e-19
309.25998     1.23500e-18
309.27382     6.02800e-19
309.28767     5.28800e-19
309.30149     1.13800e-18
309.31534     1.70600e-18
309.32917     2.23800e-18
309.34302     2.68000e-18
309.35685     2.37700e-18
309.37070     1.08700e-18
309.38454     8.05700e-19
309.39839     1.84800e-18
309.41222     2.53200e-18
309.42608     1.78500e-18
309.43992     1.19700e-20
309.45378    -8.83700e-19
309.46761    -3.51700e-19
309.48148     5.62300e-19
309.49534     1.34800e-18
309.50918     1.57400e-18
309.52306     1.05300e-18
309.53690     4.29500e-19
309.55076     1.34200e-20
309.56461     1.18400e-19
309.57849     4.33400e-19
309.59234     1.17700e-18
309.60621     2.16200e-18
309.62007     3.01200e-18
309.63394     2.71900e-18
309.64780     1.20100e-18
309.66167     4.13000e-19
309.67554     9.64300e-19
309.68941     1.75700e-18
309.70327     1.33700e-18
309.71716    -8.33000e-20
309.73104    -5.25900e-19
309.74491     6.32900e-19
309.75879     2.20400e-18
309.77266     2.49000e-18
309.78655     1.46400e-18
309.80042     7.89700e-19
309.81432     1.92300e-18
309.82819     3.59000e-18
309.84208     2.71000e-18
309.85595     7.84400e-19
309.86985     2.79000e-19
309.88373     2.04600e-18
309.89763     3.71100e-18
309.91151     2.06300e-18
309.92541    -4.04100e-19
309.93931    -2.83100e-19
309.95319     1.80900e-18
309.96710     3.28600e-18
309.98099     2.99900e-18
309.99489     2.81900e-18
310.00879     3.05200e-18
310.02270     2.81300e-18
310.03658     2.17600e-18
310.05049     1.99300e-18
